wavelength_nm,camera_response_arb
400,178.554
410,202.914
420,231.059
430,263.084
440,298.898
450,338.18
460,380.36
470,424.631
480,470.0
490,515.369
500,559.64
510,601.82
520,641.102
530,676.916
540,708.941
550,737.086
560,761.446
570,782.254
580,799.826
590,814.526
600,826.725
610,794.804
620,762.472
630,730.206
640,698.369
650,667.232
660,636.988
670,607.77
680,579.665
690,552.722
700,526.962
710,502.386
720,478.979
730,456.717
740,435.567
750,415.489
